Wavenumber,Intensity
5500.82284,-0.04634
5499.85863,-0.04848
5498.89442,-0.05018
5497.93021,-0.05135
5496.966,-0.05113
5496.00179,-0.04835
5495.03757,-0.04382
5494.07336,-0.04075
5493.10915,-0.04269
5492.14494,-0.05064
5491.18073,-0.06
5490.21652,-0.06338
5489.25231,-0.05866
5488.2881,-0.04975
5487.32389,-0.04247
5486.35968,-0.04141
5485.39547,-0.04588
5484.43126,-0.04975
5483.46704,-0.04912
5482.50283,-0.04667
5481.53862,-0.04609
5480.57441,-0.04717
5479.6102,-0.04819
5478.64599,-0.04885
5477.68178,-0.04978
5476.71757,-0.05105
5475.75336,-0.05132
5474.78915,-0.04925
5473.82494,-0.04668
5472.86073,-0.04646
5471.89651,-0.04744
5470.9323,-0.04672
5469.96809,-0.04495
5469.00388,-0.04561
5468.03967,-0.0484
5467.07546,-0.04952
5466.11125,-0.04863
5465.14704,-0.04834
5464.18283,-0.04865
5463.21862,-0.04816
5462.25441,-0.04751
5461.2902,-0.04754
5460.32598,-0.04702
5459.36177,-0.04532
5458.39756,-0.04407
5457.43335,-0.04437
5456.46914,-0.04558
5455.50493,-0.04727
5454.54072,-0.04965
5453.57651,-0.05196
5452.6123,-0.05248
5451.64809,-0.05063
5450.68388,-0.04804
5449.71967,-0.04702
5448.75545,-0.04776
5447.79124,-0.04839
5446.82703,-0.04826
5445.86282,-0.04834
5444.89861,-0.04914
5443.9344,-0.05047
5442.97019,-0.05206
5442.00598,-0.05341
5441.04177,-0.05399
5440.07756,-0.05383
5439.11335,-0.0534
5438.14913,-0.05284
5437.18492,-0.05228
5436.22071,-0.05229
5435.2565,-0.05281
5434.29229,-0.05287
5433.32808,-0.05221
5432.36387,-0.05141
5431.39966,-0.05065
5430.43545,-0.05013
5429.47124,-0.05003
5428.50703,-0.05
5427.54282,-0.04991
5426.5786,-0.04982
5425.61439,-0.04945
5424.65018,-0.04883
5423.68597,-0.04834
5422.72176,-0.04806
5421.75755,-0.04772
5420.79334,-0.04718
5419.82913,-0.04688
5418.86492,-0.04724
5417.90071,-0.04783
5416.9365,-0.04806
5415.97229,-0.04792
5415.00807,-0.04768
5414.04386,-0.04722
5413.07965,-0.04631
5412.11544,-0.04543
5411.15123,-0.04512
5410.18702,-0.04504
5409.22281,-0.04503
5408.2586,-0.04557
5407.29439,-0.04655
5406.33018,-0.04722
5405.36597,-0.04729
5404.40176,-0.04709
5403.43754,-0.04683
5402.47333,-0.04636
5401.50912,-0.0458
5400.54491,-0.04566
5399.5807,-0.04618
5398.61649,-0.04688
5397.65228,-0.04704
5396.68807,-0.04658
5395.72386,-0.04602
5394.75965,-0.04575
5393.79544,-0.0456
5392.83123,-0.04542
5391.86701,-0.04558
5390.9028,-0.04626
5389.93859,-0.04684
5388.97438,-0.04684
5388.01017,-0.04642
5387.04596,-0.04591
5386.08175,-0.04537
5385.11754,-0.04493
5384.15333,-0.04491
5383.18912,-0.04529
5382.22491,-0.04566
5381.2607,-0.04588
5380.29648,-0.04602
5379.33227,-0.04608
5378.36806,-0.04617
5377.40385,-0.0463
5376.43964,-0.04605
5375.47543,-0.04535
5374.51122,-0.04476
5373.54701,-0.04475
5372.5828,-0.04522
5371.61859,-0.04557
5370.65438,-0.04538
5369.69017,-0.04489
5368.72595,-0.04456
5367.76174,-0.04444
5366.79753,-0.04439
5365.83332,-0.04459
5364.86911,-0.04525
5363.9049,-0.04582
5362.94069,-0.04567
5361.97648,-0.04501
5361.01227,-0.04454
5360.04806,-0.04459
5359.08385,-0.04501
5358.11964,-0.0456
5357.15542,-0.04615
5356.19121,-0.04656
5355.227,-0.0469
5354.26279,-0.04714
5353.29858,-0.04707
5352.33437,-0.04663
5351.37016,-0.04622
5350.40595,-0.04616
5349.44174,-0.04622
5348.47753,-0.04597
5347.51332,-0.0454
5346.54911,-0.04513
5345.58489,-0.04546
5344.62068,-0.04593
5343.65647,-0.04589
5342.69226,-0.04536
5341.72805,-0.04471
5340.76384,-0.0443
5339.79963,-0.04432
5338.83542,-0.04455
5337.87121,-0.04462
5336.907,-0.04461
5335.94279,-0.04479
5334.97858,-0.04511
5334.01436,-0.04546
5333.05015,-0.04564
5332.08594,-0.04541
5331.12173,-0.0448
5330.15752,-0.04416
5329.19331,-0.04383
5328.2291,-0.04401
5327.26489,-0.04454
5326.30068,-0.04487
5325.33647,-0.04476
5324.37226,-0.0445
5323.40805,-0.04429
5322.44383,-0.04411
5321.47962,-0.04397
5320.51541,-0.04389
5319.5512,-0.04383
5318.58699,-0.04365
5317.62278,-0.0433
5316.65857,-0.04291
5315.69436,-0.04265
5314.73015,-0.04262
5313.76594,-0.04292
5312.80173,-0.04349
5311.83752,-0.0439
5310.8733,-0.0438
5309.90909,-0.04339
5308.94488,-0.04309
5307.98067,-0.04298
5307.01646,-0.04289
5306.05225,-0.04278
5305.08804,-0.0428
5304.12383,-0.04295
5303.15962,-0.04307
5302.19541,-0.04314
5301.2312,-0.0433
5300.26698,-0.04354
5299.30277,-0.0437
5298.33856,-0.04382
5297.37435,-0.04398
5296.41014,-0.04405
5295.44593,-0.04395
5294.48172,-0.0439
5293.51751,-0.04401
5292.5533,-0.04412
5291.58909,-0.04409
5290.62488,-0.04375
5289.66067,-0.04296
5288.69645,-0.04211
5287.73224,-0.04183
5286.76803,-0.04217
5285.80382,-0.04266
5284.83961,-0.0429
5283.8754,-0.04272
5282.91119,-0.04236
5281.94698,-0.0422
5280.98277,-0.04229
5280.01856,-0.04229
5279.05435,-0.04211
5278.09014,-0.04207
5277.12592,-0.04219
5276.16171,-0.04221
5275.1975,-0.042
5274.23329,-0.04172
5273.26908,-0.04162
5272.30487,-0.04179
5271.34066,-0.04214
5270.37645,-0.0424
5269.41224,-0.04238
5268.44803,-0.04209
5267.48382,-0.04188
5266.51961,-0.042
5265.55539,-0.04227
5264.59118,-0.04236
5263.62697,-0.04212
5262.66276,-0.04173
5261.69855,-0.04162
5260.73434,-0.04174
5259.77013,-0.0417
5258.80592,-0.0415
5257.84171,-0.04135
5256.8775,-0.04144
5255.91329,-0.04176
5254.94908,-0.04202
5253.98486,-0.04187
5253.02065,-0.04154
5252.05644,-0.04146
5251.09223,-0.04164
5250.12802,-0.04195
5249.16381,-0.04229
5248.1996,-0.04234
5247.23539,-0.04189
5246.27118,-0.04151
5245.30697,-0.04181
5244.34276,-0.04231
5243.37855,-0.04216
5242.41433,-0.04155
5241.45012,-0.04124
5240.48591,-0.04137
5239.5217,-0.04159
5238.55749,-0.04172
5237.59328,-0.04181
5236.62907,-0.04189
5235.66486,-0.04199
5234.70065,-0.04217
5233.73644,-0.04239
5232.77223,-0.04242
5231.80802,-0.04213
5230.8438,-0.04168
5229.87959,-0.04144
5228.91538,-0.04163
5227.95117,-0.04201
5226.98696,-0.0423
5226.02275,-0.04227
5225.05854,-0.04162
5224.09433,-0.04072
5223.13012,-0.04043
5222.16591,-0.04074
5221.2017,-0.04113
5220.23749,-0.04147
5219.27327,-0.04181
5218.30906,-0.04192
5217.34485,-0.04177
5216.38064,-0.04167
5215.41643,-0.04181
5214.45222,-0.04192
5213.48801,-0.04189
5212.5238,-0.04191
5211.55959,-0.04203
5210.59538,-0.04218
5209.63117,-0.04228
5208.66696,-0.0421
5207.70274,-0.04159
5206.73853,-0.04119
5205.77432,-0.04106
5204.81011,-0.04104
5203.8459,-0.04112
5202.88169,-0.04131
5201.91748,-0.04147
5200.95327,-0.04157
5199.98906,-0.04165
5199.02485,-0.04177
5198.06064,-0.04195
5197.09643,-0.0421
5196.13221,-0.042
5195.168,-0.04175
5194.20379,-0.04158
5193.23958,-0.04153
5192.27537,-0.04155
5191.31116,-0.04163
5190.34695,-0.04172
5189.38274,-0.04171
5188.41853,-0.04151
5187.45432,-0.04135
5186.49011,-0.04164
5185.5259,-0.04231
5184.56168,-0.04276
5183.59747,-0.04264
5182.63326,-0.04232
5181.66905,-0.04217
5180.70484,-0.04219
5179.74063,-0.04221
5178.77642,-0.04208
5177.81221,-0.04189
5176.848,-0.04182
5175.88379,-0.04186
5174.91958,-0.04188
5173.95536,-0.04186
5172.99115,-0.04182
5172.02694,-0.04186
5171.06273,-0.04207
5170.09852,-0.04223
5169.13431,-0.04211
5168.1701,-0.04192
5167.20589,-0.04182
5166.24168,-0.04179
5165.27747,-0.04182
5164.31326,-0.04185
5163.34905,-0.04171
5162.38483,-0.04137
5161.42062,-0.04114
5160.45641,-0.04123
5159.4922,-0.04145
5158.52799,-0.0416
5157.56378,-0.04174
5156.59957,-0.04184
5155.63536,-0.0417
5154.67115,-0.0414
5153.70694,-0.04124
5152.74273,-0.04134
5151.77852,-0.04152
5150.8143,-0.04169
5149.85009,-0.04188
5148.88588,-0.04201
5147.92167,-0.04192
5146.95746,-0.04174
5145.99325,-0.0417
5145.02904,-0.04192
5144.06483,-0.04226
5143.10062,-0.04245
5142.13641,-0.04227
5141.1722,-0.0418
5140.20799,-0.04148
5139.24377,-0.0415
5138.27956,-0.04157
5137.31535,-0.04149
5136.35114,-0.04145
5135.38693,-0.04157
5134.42272,-0.04183
5133.45851,-0.04205
5132.4943,-0.04202
5131.53009,-0.04183
5130.56588,-0.0417
5129.60167,-0.04161
5128.63746,-0.04153
5127.67324,-0.0415
5126.70903,-0.04153
5125.74482,-0.0416
5124.78061,-0.04165
5123.8164,-0.04163
5122.85219,-0.0415
5121.88798,-0.04126
5120.92377,-0.04106
5119.95956,-0.04103
5118.99535,-0.04103
5118.03114,-0.04098
5117.06693,-0.04093
5116.10271,-0.04082
5115.1385,-0.04051
5114.17429,-0.04007
5113.21008,-0.03974
5112.24587,-0.03972
5111.28166,-0.03984
5110.31745,-0.03982
5109.35324,-0.03967
5108.38903,-0.03958
5107.42482,-0.03953
5106.46061,-0.0395
5105.4964,-0.03955
5104.53218,-0.03956
5103.56797,-0.03937
5102.60376,-0.03918
5101.63955,-0.03926
5100.67534,-0.03945
5099.71113,-0.03949
5098.74692,-0.03936
5097.78271,-0.03928
5096.8185,-0.03934
5095.85429,-0.03944
5094.89008,-0.0395
5093.92587,-0.03954
5092.96165,-0.03959
5091.99744,-0.03961
5091.03323,-0.0396
5090.06902,-0.03961
5089.10481,-0.03965
5088.1406,-0.0396
5087.17639,-0.0395
5086.21218,-0.03945
5085.24797,-0.03944
5084.28376,-0.03939
5083.31955,-0.03941
5082.35534,-0.03955
5081.39112,-0.03962
5080.42691,-0.03949
5079.4627,-0.03931
5078.49849,-0.03925
5077.53428,-0.03931
5076.57007,-0.03932
5075.60586,-0.03921
5074.64165,-0.03907
5073.67744,-0.03899
5072.71323,-0.03896
5071.74902,-0.03895
5070.78481,-0.03902
5069.82059,-0.03919
5068.85638,-0.0393
5067.89217,-0.03929
5066.92796,-0.0393
5065.96375,-0.03935
5064.99954,-0.03935
5064.03533,-0.03937
5063.07112,-0.03944
5062.10691,-0.03943
5061.1427,-0.03932
5060.17849,-0.03934
5059.21428,-0.03953
5058.25006,-0.03968
5057.28585,-0.03967
5056.32164,-0.0396
5055.35743,-0.03956
5054.39322,-0.03952
5053.42901,-0.0395
5052.4648,-0.03952
5051.50059,-0.03944
5050.53638,-0.03918
5049.57217,-0.03891
5048.60796,-0.03879
5047.64374,-0.0388
5046.67953,-0.03888
5045.71532,-0.03903
5044.75111,-0.03916
5043.7869,-0.03917
5042.82269,-0.03914
5041.85848,-0.03915
5040.89427,-0.03914
5039.93006,-0.03914
5038.96585,-0.03921
5038.00164,-0.03926
5037.03743,-0.03926
5036.07321,-0.03921
5035.109,-0.03908
5034.14479,-0.03898
5033.18058,-0.03905
5032.21637,-0.03922
5031.25216,-0.03928
5030.28795,-0.03915
5029.32374,-0.039
5028.35953,-0.039
5027.39532,-0.03919
5026.43111,-0.0394
5025.4669,-0.03939
5024.50268,-0.03915
5023.53847,-0.03894
5022.57426,-0.03886
5021.61005,-0.03883
5020.64584,-0.03883
5019.68163,-0.03889
5018.71742,-0.03899
5017.75321,-0.03908
5016.789,-0.03912
5015.82479,-0.03912
5014.86058,-0.03905
5013.89637,-0.03891
5012.93215,-0.03882
5011.96794,-0.03886
5011.00373,-0.03894
5010.03952,-0.03896
5009.07531,-0.03895
5008.1111,-0.03901
5007.14689,-0.03914
5006.18268,-0.03908
5005.21847,-0.03879
5004.25426,-0.03864
5003.29005,-0.03873
5002.32584,-0.03882
5001.36162,-0.03882
5000.39741,-0.03887
4999.4332,-0.03898
4998.46899,-0.03903
4997.50478,-0.03909
4996.54057,-0.03925
4995.57636,-0.0393
4994.61215,-0.03922
4993.64794,-0.03914
4992.68373,-0.03906
4991.71952,-0.03895
4990.75531,-0.03894
4989.79109,-0.03903
4988.82688,-0.03921
4987.86267,-0.03945
4986.89846,-0.0395
4985.93425,-0.03923
4984.97004,-0.03892
4984.00583,-0.0388
4983.04162,-0.03889
4982.07741,-0.03913
4981.1132,-0.03929
4980.14899,-0.03917
4979.18478,-0.03892
4978.22056,-0.03881
4977.25635,-0.03884
4976.29214,-0.03892
4975.32793,-0.03902
4974.36372,-0.03905
4973.39951,-0.03903
4972.4353,-0.039
4971.47109,-0.03891
4970.50688,-0.03892
4969.54267,-0.03911
4968.57846,-0.0393
4967.61425,-0.03938
4966.65003,-0.03929
4965.68582,-0.03914
4964.72161,-0.03914
4963.7574,-0.0392
4962.79319,-0.03921
4961.82898,-0.03927
4960.86477,-0.03934
4959.90056,-0.03921
4958.93635,-0.03904
4957.97214,-0.03909
4957.00793,-0.03928
4956.04372,-0.03935
4955.0795,-0.03922
4954.11529,-0.03908
4953.15108,-0.03903
4952.18687,-0.03903
4951.22266,-0.03911
4950.25845,-0.03918
4949.29424,-0.03902
4948.33003,-0.03874
4947.36582,-0.03866
4946.40161,-0.03887
4945.4374,-0.03909
4944.47319,-0.03917
4943.50897,-0.03915
4942.54476,-0.03912
4941.58055,-0.03909
4940.61634,-0.03907
4939.65213,-0.03912
4938.68792,-0.0391
4937.72371,-0.03895
4936.7595,-0.03897
4935.79529,-0.03908
4934.83108,-0.039
4933.86687,-0.03884
4932.90266,-0.0389
4931.93844,-0.03896
4930.97423,-0.03882
4930.01002,-0.0387
4929.04581,-0.03884
4928.0816,-0.03903
4927.11739,-0.03899
4926.15318,-0.0388
4925.18897,-0.03878
4924.22476,-0.03891
4923.26055,-0.03905
4922.29634,-0.03925
4921.33213,-0.03943
4920.36791,-0.03932
4919.4037,-0.03904
4918.43949,-0.03894
4917.47528,-0.03902
4916.51107,-0.03914
4915.54686,-0.03917
4914.58265,-0.03908
4913.61844,-0.03905
4912.65423,-0.03919
4911.69002,-0.0393
4910.72581,-0.03924
4909.76159,-0.03921
4908.79738,-0.03931
4907.83317,-0.03926
4906.86896,-0.03905
4905.90475,-0.03899
4904.94054,-0.03905
4903.97633,-0.03905
4903.01212,-0.03902
4902.04791,-0.03904
4901.0837,-0.03903
4900.11949,-0.03889
4899.15528,-0.0388
4898.19106,-0.0389
4897.22685,-0.03911
4896.26264,-0.03926
4895.29843,-0.0392
4894.33422,-0.03905
4893.37001,-0.03898
4892.4058,-0.03897
4891.44159,-0.03904
4890.47738,-0.0392
4889.51317,-0.03931
4888.54896,-0.03932
4887.58475,-0.03937
4886.62053,-0.03941
4885.65632,-0.03937
4884.69211,-0.03931
4883.7279,-0.0392
4882.76369,-0.03904
4881.79948,-0.03902
4880.83527,-0.03917
4879.87106,-0.03923
4878.90685,-0.03918
4877.94264,-0.0392
4876.97843,-0.03928
4876.01422,-0.03919
4875.05,-0.03896
4874.08579,-0.03892
4873.12158,-0.03911
4872.15737,-0.03929
4871.19316,-0.03932
4870.22895,-0.03914
4869.26474,-0.03887
4868.30053,-0.03877
4867.33632,-0.03892
4866.37211,-0.03914
4865.4079,-0.03924
4864.44369,-0.03928
4863.47947,-0.03934
4862.51526,-0.03924
4861.55105,-0.03896
4860.58684,-0.03874
4859.62263,-0.03881
4858.65842,-0.03906
4857.69421,-0.03921
4856.73,-0.03919
4855.76579,-0.03906
4854.80158,-0.0389
4853.83737,-0.03885
4852.87316,-0.03903
4851.90894,-0.03924
4850.94473,-0.03927
4849.98052,-0.0391
4849.01631,-0.03892
4848.0521,-0.03901
4847.08789,-0.03929
4846.12368,-0.03944
4845.15947,-0.03927
4844.19526,-0.03899
4843.23105,-0.0389
4842.26684,-0.03901
4841.30263,-0.03915
4840.33841,-0.03925
4839.3742,-0.03924
4838.40999,-0.03909
4837.44578,-0.03895
4836.48157,-0.03896
4835.51736,-0.03899
4834.55315,-0.03889
4833.58894,-0.03885
4832.62473,-0.03903
4831.66052,-0.03927
4830.69631,-0.0394
4829.7321,-0.03939
4828.76788,-0.03922
4827.80367,-0.03895
4826.83946,-0.03881
4825.87525,-0.03886
4824.91104,-0.03893
4823.94683,-0.039
4822.98262,-0.03903
4822.01841,-0.03893
4821.0542,-0.03884
4820.08999,-0.03896
4819.12578,-0.03918
4818.16157,-0.0393
4817.19735,-0.03921
4816.23314,-0.03905
4815.26893,-0.03903
4814.30472,-0.03909
4813.34051,-0.03908
4812.3763,-0.03909
4811.41209,-0.03915
4810.44788,-0.03913
4809.48367,-0.03909
4808.51946,-0.03909
4807.55525,-0.03914
4806.59104,-0.03928
4805.62682,-0.03935
4804.66261,-0.03926
4803.6984,-0.03917
4802.73419,-0.03914
4801.76998,-0.03913
4800.80577,-0.03916
4799.84156,-0.03924
4798.87735,-0.03921
4797.91314,-0.03909
4796.94893,-0.03904
4795.98472,-0.03909
4795.02051,-0.03919
4794.05629,-0.03925
4793.09208,-0.03919
4792.12787,-0.03921
4791.16366,-0.03938
4790.19945,-0.03945
4789.23524,-0.03934
4788.27103,-0.03921
4787.30682,-0.03919
4786.34261,-0.03916
4785.3784,-0.03913
4784.41419,-0.03917
4783.44997,-0.03928
4782.48576,-0.03936
4781.52155,-0.03937
4780.55734,-0.0393
4779.59313,-0.03909
4778.62892,-0.03885
4777.66471,-0.03874
4776.7005,-0.03882
4775.73629,-0.03899
4774.77208,-0.03915
4773.80787,-0.03926
4772.84366,-0.0393
4771.87944,-0.03931
4770.91523,-0.03932
4769.95102,-0.0393
4768.98681,-0.03922
4768.0226,-0.03922
4767.05839,-0.03934
4766.09418,-0.03946
4765.12997,-0.0395
4764.16576,-0.03953
4763.20155,-0.03955
4762.23734,-0.03948
4761.27313,-0.03929
4760.30891,-0.03909
4759.3447,-0.03903
4758.38049,-0.03913
4757.41628,-0.03921
4756.45207,-0.0392
4755.48786,-0.0392
4754.52365,-0.03925
4753.55944,-0.0393
4752.59523,-0.0393
4751.63102,-0.03932
4750.66681,-0.03936
4749.7026,-0.03928
4748.73838,-0.03916
4747.77417,-0.03913
4746.80996,-0.03915
4745.84575,-0.03919
4744.88154,-0.03928
4743.91733,-0.03928
4742.95312,-0.03922
4741.98891,-0.0392
4741.0247,-0.03922
4740.06049,-0.0392
4739.09628,-0.03917
4738.13207,-0.03918
4737.16785,-0.03927
4736.20364,-0.03932
4735.23943,-0.03919
4734.27522,-0.03904
4733.31101,-0.03908
4732.3468,-0.0392
4731.38259,-0.03925
4730.41838,-0.03926
4729.45417,-0.03927
4728.48996,-0.03925
4727.52575,-0.0392
4726.56154,-0.03919
4725.59732,-0.03925
4724.63311,-0.03936
4723.6689,-0.0394
4722.70469,-0.03936
4721.74048,-0.03931
4720.77627,-0.03929
4719.81206,-0.03928
4718.84785,-0.03931
4717.88364,-0.03935
4716.91943,-0.0393
4715.95522,-0.03913
4714.99101,-0.03906
4714.02679,-0.03912
4713.06258,-0.03919
4712.09837,-0.03929
4711.13416,-0.03945
4710.16995,-0.03949
4709.20574,-0.03944
4708.24153,-0.03941
4707.27732,-0.03934
4706.31311,-0.03924
4705.3489,-0.03924
4704.38469,-0.03925
4703.42048,-0.03916
4702.45626,-0.03909
4701.49205,-0.03913
4700.52784,-0.03926
4699.56363,-0.03933
4698.59942,-0.03927
4697.63521,-0.0392
4696.671,-0.03923
4695.70679,-0.03932
4694.74258,-0.03936
4693.77837,-0.03935
4692.81416,-0.03932
4691.84995,-0.03926
4690.88573,-0.03922
4689.92152,-0.03924
4688.95731,-0.03932
4687.9931,-0.03943
4687.02889,-0.03954
4686.06468,-0.03961
4685.10047,-0.03964
4684.13626,-0.03961
4683.17205,-0.03946
4682.20784,-0.03928
4681.24363,-0.03924
4680.27942,-0.03927
4679.3152,-0.03925
4678.35099,-0.0392
4677.38678,-0.03915
4676.42257,-0.03911
4675.45836,-0.03908
4674.49415,-0.03903
4673.52994,-0.03911
4672.56573,-0.03929
4671.60152,-0.03934
4670.63731,-0.03919
4669.6731,-0.03903
4668.70889,-0.03901
4667.74467,-0.0391
4666.78046,-0.03919
4665.81625,-0.03921
4664.85204,-0.03916
4663.88783,-0.03917
4662.92362,-0.03926
4661.95941,-0.03925
4660.9952,-0.03918
4660.03099,-0.03919
4659.06678,-0.03925
4658.10257,-0.0392
4657.13835,-0.03908
4656.17414,-0.03904
4655.20993,-0.03905
4654.24572,-0.0391
4653.28151,-0.03916
4652.3173,-0.03915
4651.35309,-0.03914
4650.38888,-0.03927
4649.42467,-0.03944
4648.46046,-0.03945
4647.49625,-0.03935
4646.53204,-0.03937
4645.56782,-0.03945
4644.60361,-0.03945
4643.6394,-0.03938
4642.67519,-0.03929
4641.71098,-0.03926
4640.74677,-0.03934
4639.78256,-0.03943
4638.81835,-0.03941
4637.85414,-0.03929
4636.88993,-0.03923
4635.92572,-0.03929
4634.96151,-0.0394
4633.99729,-0.03941
4633.03308,-0.03935
4632.06887,-0.03928
4631.10466,-0.03924
4630.14045,-0.03921
4629.17624,-0.03916
4628.21203,-0.03915
4627.24782,-0.03922
4626.28361,-0.03926
4625.3194,-0.03927
4624.35519,-0.03925
4623.39098,-0.03924
4622.42676,-0.03921
4621.46255,-0.03911
4620.49834,-0.03908
4619.53413,-0.03918
4618.56992,-0.03927
4617.60571,-0.03932
4616.6415,-0.03933
4615.67729,-0.03928
4614.71308,-0.0392
4613.74887,-0.03918
4612.78466,-0.03922
4611.82045,-0.03927
4610.85623,-0.0393
4609.89202,-0.03938
4608.92781,-0.03939
4607.9636,-0.03924
4606.99939,-0.03911
4606.03518,-0.03908
4605.07097,-0.0391
4604.10676,-0.03918
4603.14255,-0.03927
4602.17834,-0.03933
4601.21413,-0.03937
4600.24992,-0.03941
4599.2857,-0.0394
4598.32149,-0.03936
4597.35728,-0.03932
4596.39307,-0.03927
4595.42886,-0.03917
4594.46465,-0.03911
4593.50044,-0.03914
4592.53623,-0.03922
4591.57202,-0.03923
4590.60781,-0.03916
4589.6436,-0.03915
4588.67939,-0.0393
4587.71517,-0.03946
4586.75096,-0.03948
4585.78675,-0.03936
4584.82254,-0.03926
4583.85833,-0.03925
4582.89412,-0.03926
4581.92991,-0.03928
4580.9657,-0.03929
4580.00149,-0.03929
4579.03728,-0.03933
4578.07307,-0.03935
4577.10886,-0.03927
4576.14464,-0.03917
4575.18043,-0.03914
4574.21622,-0.03916
4573.25201,-0.03916
4572.2878,-0.03911
4571.32359,-0.03905
4570.35938,-0.03905
4569.39517,-0.03912
4568.43096,-0.03912
4567.46675,-0.03901
4566.50254,-0.03891
4565.53833,-0.03899
4564.57411,-0.03914
4563.6099,-0.0392
4562.64569,-0.03921
4561.68148,-0.03925
4560.71727,-0.03931
4559.75306,-0.03931
4558.78885,-0.03928
4557.82464,-0.03936
4556.86043,-0.03945
4555.89622,-0.03944
4554.93201,-0.03938
4553.9678,-0.03934
4553.00358,-0.03928
4552.03937,-0.03923
4551.07516,-0.03921
4550.11095,-0.03918
4549.14674,-0.03913
4548.18253,-0.03911
4547.21832,-0.0391
4546.25411,-0.03918
4545.2899,-0.03934
4544.32569,-0.0394
4543.36148,-0.03926
4542.39727,-0.03912
4541.43305,-0.03908
4540.46884,-0.03909
4539.50463,-0.03909
4538.54042,-0.03906
4537.57621,-0.03903
4536.612,-0.03903
4535.64779,-0.03908
4534.68358,-0.03916
4533.71937,-0.03923
4532.75516,-0.03923
4531.79095,-0.03918
4530.82673,-0.03915
4529.86252,-0.03919
4528.89831,-0.03925
4527.9341,-0.03921
